#!/bin/sh
#
# This script will plot ray paths using GMT. If you want to
#use this as a data file for psxy in another script, delete these
# first lines, to the last psxy, as well as the last line.
#
/bin/rm -f ans1.ps
# draw surface and label distances.
gmt psbasemap -K -P -R0/360/0/6371.0 -JP6.0i -B30p/500N > ans1.ps
# draw circles for branches, note these are scaled for a 
# map using -JP6.0i
gmt psxy -K -O -P -R -JP -Sc -A >> ans1.ps <<ENDLAYERS
0.0 0.0 6.0i
0.0 0.0 6.0i
0.0 0.0 5.9858737i
0.0 0.0 5.9770207i
0.0 0.0 5.7928114i
0.0 0.0 5.623293i
0.0 0.0 5.3690157i
0.0 0.0 3.2773504i
0.0 0.0 1.1503688i
ENDLAYERS

# draw paths
gmt psxy -P -R -K -O -JP -m -A -W1,Blue >> ans1.ps <<END
> P at   683.32 seconds at    72.59 degrees for a     30.0 km deep source in the prem model with rayParam    5.932 s/deg.
    0.00    6341.0
    0.01    6338.8
    0.03    6334.9
    0.04    6331.0
    0.07    6326.0
    0.09    6321.0
    0.11    6316.0
    0.13    6311.0
    0.18    6301.0
    0.22    6291.0
    0.28    6277.5
    0.34    6264.0
    0.34    6263.3
    0.37    6256.0
    0.41    6247.2
    0.45    6238.5
    0.53    6221.0
    0.61    6203.5
    0.69    6186.0
    0.77    6168.5
    0.85    6151.0
    0.86    6148.8
    0.87    6146.5
    0.89    6142.1
    0.94    6133.1
    0.95    6130.6
    0.96    6128.2
    1.02    6117.1
    1.05    6111.6
    1.08    6106.0
    1.14    6093.3
    1.21    6080.5
    1.31    6061.0
    1.32    6060.1
    1.32    6059.2
    1.44    6037.7
    1.56    6016.0
    1.64    6001.4
    1.73    5984.5
    1.81    5971.0
    1.86    5962.3
    1.91    5953.5
    2.02    5935.6
    2.03    5932.7
    2.07    5926.9
    2.11    5921.0
    2.20    5906.2
    2.29    5891.1
    2.43    5871.0
    2.49    5861.7
    2.53    5855.1
    2.58    5848.3
    2.67    5834.8
    2.76    5821.0
    2.77    5820.4
    2.82    5812.3
    2.88    5804.2
    3.00    5787.7
    3.12    5771.0
    3.17    5764.6
    3.22    5758.2
    3.32    5745.3
    3.35    5740.7
    3.39    5736.0
    3.52    5718.5
    3.65    5701.0
    3.68    5697.6
    3.71    5694.2
    3.80    5683.3
    3.90    5672.2
    4.09    5650.0
    4.33    5623.1
    4.55    5600.0
    4.72    5581.1
    4.90    5562.1
    5.02    5550.0
    5.08    5544.0
    5.14    5537.9
    5.32    5519.0
    5.42    5509.5
    5.51    5500.0
    5.74    5477.4
    5.98    5454.7
    6.05    5447.9
    6.16    5437.6
    6.17    5436.5
    6.18    5435.3
    6.21    5433.0
    6.26    5428.3
    6.31    5423.6
    6.36    5418.9
    6.41    5414.2
    6.46    5409.5
    6.56    5400.0
    6.70    5387.1
    6.85    5374.1
    7.00    5361.1
    7.14    5348.1
    7.28    5336.1
    7.42    5324.1
    7.71    5300.0
    8.07    5270.3
    8.44    5240.3
    8.70    5220.2
    8.96    5200.0
    9.27    5176.9
    9.68    5146.9
   10.11    5116.6
   10.13    5115.0
   10.15    5113.5
   10.20    5110.3
   10.29    5104.1
   10.35    5100.0
   10.47    5091.5
   10.85    5066.1
   11.43    5028.8
   11.89    5000.0
   12.03    4991.1
   12.71    4950.6
   13.07    4930.1
   13.44    4909.6
   13.61    4900.0
   14.13    4872.3
   14.50    4853.4
   14.87    4834.5
   15.58    4800.0
   15.70    4794.4
   16.14    4774.0
   16.60    4753.5
   17.47    4716.4
   17.87    4700.0
   18.41    4678.8
   18.92    4659.8
   19.43    4640.8
   19.98    4621.6
   20.55    4602.4
   20.63    4600.0
   21.21    4581.8
   21.80    4563.5
   22.48    4544.0
   23.21    4524.3
   24.18    4500.0
   24.84    4484.7
   25.82    4464.7
   26.81    4444.7
   27.09    4439.7
   27.97    4426.5
   28.86    4413.2
   29.75    4400.0
   30.43    4393.0
   31.11    4386.0
   31.79    4378.9
   32.79    4371.6
   33.66    4368.8
   34.52    4366.0
   35.38    4363.3
   36.24    4360.5
   37.11    4363.3
   37.97    4366.0
   38.83    4368.8
   39.69    4371.6
   40.69    4378.9
   41.38    4386.0
   42.06    4393.0
   42.74    4400.0
   43.63    4413.2
   44.51    4426.5
   45.40    4439.7
   45.68    4444.7
   46.66    4464.7
   47.65    4484.7
   48.31    4500.0
   49.28    4524.3
   50.01    4544.0
   50.69    4563.5
   51.27    4581.8
   51.86    4600.0
   51.94    4602.4
   52.51    4621.6
   53.06    4640.8
   53.57    4659.8
   54.08    4678.8
   54.62    4700.0
   55.02    4716.4
   55.89    4753.5
   56.35    4774.0
   56.79    4794.4
   56.91    4800.0
   57.62    4834.5
   57.99    4853.4
   58.36    4872.3
   58.88    4900.0
   59.05    4909.6
   59.42    4930.1
   59.78    4950.6
   60.46    4991.1
   60.60    5000.0
   61.06    5028.8
   61.64    5066.1
   62.02    5091.5
   62.14    5100.0
   62.20    5104.1
   62.29    5110.3
   62.34    5113.5
   62.36    5115.0
   62.38    5116.6
   62.81    5146.9
   63.22    5176.9
   63.53    5200.0
   63.79    5220.2
   64.05    5240.3
   64.42    5270.3
   64.78    5300.0
   65.07    5324.1
   65.21    5336.1
   65.34    5348.1
   65.49    5361.1
   65.64    5374.1
   65.78    5387.1
   65.93    5400.0
   66.03    5409.5
   66.08    5414.2
   66.13    5418.9
   66.18    5423.6
   66.23    5428.3
   66.28    5433.0
   66.31    5435.3
   66.32    5436.5
   66.33    5437.6
   66.44    5447.9
   66.51    5454.7
   66.75    5477.4
   66.98    5500.0
   67.07    5509.5
   67.17    5519.0
   67.35    5537.9
   67.41    5544.0
   67.47    5550.0
   67.59    5562.1
   67.77    5581.1
   67.94    5600.0
   68.15    5623.1
   68.40    5650.0
   68.59    5672.2
   68.68    5683.3
   68.78    5694.2
   68.81    5697.6
   68.83    5701.0
   68.97    5718.5
   69.10    5736.0
   69.14    5740.7
   69.17    5745.3
   69.27    5758.2
   69.32    5764.6
   69.37    5771.0
   69.49    5787.7
   69.61    5804.2
   69.66    5812.3
   69.72    5820.4
   69.73    5821.0
   69.82    5834.8
   69.91    5848.3
   69.96    5855.1
   70.00    5861.7
   70.06    5871.0
   70.19    5891.1
   70.29    5906.2
   70.38    5921.0
   70.42    5926.9
   70.45    5932.7
   70.47    5935.6
   70.58    5953.5
   70.63    5962.3
   70.68    5971.0
   70.76    5984.5
   70.85    6001.4
   70.93    6016.0
   71.05    6037.7
   71.17    6059.2
   71.17    6060.1
   71.18    6061.0
   71.28    6080.5
   71.35    6093.3
   71.41    6106.0
   71.44    6111.6
   71.47    6117.1
   71.52    6128.2
   71.54    6130.6
   71.55    6133.1
   71.59    6142.1
   71.62    6146.5
   71.63    6148.8
   71.64    6151.0
   71.72    6168.5
   71.80    6186.0
   71.88    6203.5
   71.96    6221.0
   72.04    6238.5
   72.08    6247.2
   72.11    6256.0
   72.15    6263.3
   72.15    6264.0
   72.21    6277.5
   72.27    6291.0
   72.31    6301.0
   72.36    6311.0
   72.38    6316.0
   72.40    6321.0
   72.42    6326.0
   72.45    6331.0
   72.46    6334.9
   72.48    6338.8
   72.49    6341.0
   72.50    6342.7
   72.50    6344.6
   72.51    6346.6
   72.51    6346.9
   72.53    6351.4
   72.54    6353.7
   72.54    6354.9
   72.55    6356.0
   72.57    6363.5
   72.58    6367.3
   72.59    6369.1
   72.59    6370.1
   72.59    6371.0
> pP at   692.06 seconds at    72.59 degrees for a     30.0 km deep source in the prem model with rayParam    5.947 s/deg.
    0.00    6341.0
    0.01    6342.7
    0.02    6344.6
    0.02    6346.6
    0.03    6346.9
    0.04    6351.4
    0.05    6353.7
    0.05    6354.9
    0.06    6356.0
    0.08    6363.5
    0.09    6367.3
    0.10    6369.1
    0.10    6370.1
    0.10    6371.0
    0.10    6370.1
    0.11    6369.1
    0.11    6367.3
    0.12    6363.5
    0.15    6356.0
    0.15    6354.9
    0.15    6353.7
    0.16    6351.4
    0.18    6346.9
    0.18    6346.6
    0.19    6344.6
    0.20    6342.7
    0.20    6341.0
    0.21    6338.8
    0.23    6334.9
    0.25    6331.0
    0.27    6326.0
    0.29    6321.0
    0.31    6316.0
    0.34    6311.0
    0.38    6301.0
    0.42    6291.0
    0.48    6277.5
    0.54    6264.0
    0.55    6263.3
    0.58    6256.0
    0.62    6247.2
    0.66    6238.5
    0.74    6221.0
    0.82    6203.5
    0.90    6186.0
    0.98    6168.5
    1.06    6151.0
    1.07    6148.8
    1.08    6146.5
    1.10    6142.1
    1.15    6133.1
    1.16    6130.6
    1.17    6128.2
    1.23    6117.1
    1.26    6111.6
    1.28    6106.0
    1.35    6093.3
    1.42    6080.5
    1.52    6061.0
    1.53    6060.1
    1.53    6059.2
    1.65    6037.7
    1.76    6016.0
    1.84    6001.4
    1.94    5984.5
    2.02    5971.0
    2.07    5962.3
    2.12    5953.5
    2.23    5935.6
    2.24    5932.7
    2.28    5926.9
    2.32    5921.0
    2.41    5906.2
    2.51    5891.1
    2.64    5871.0
    2.70    5861.7
    2.74    5855.1
    2.79    5848.3
    2.88    5834.8
    2.98    5821.0
    2.98    5820.4
    3.04    5812.3
    3.10    5804.2
    3.21    5787.7
    3.34    5771.0
    3.39    5764.6
    3.43    5758.2
    3.53    5745.3
    3.57    5740.7
    3.60    5736.0
    3.73    5718.5
    3.87    5701.0
    3.90    5697.6
    3.93    5694.2
    4.02    5683.3
    4.12    5672.2
    4.31    5650.0
    4.55    5623.1
    4.77    5600.0
    4.94    5581.1
    5.12    5562.1
    5.24    5550.0
    5.30    5544.0
    5.36    5537.9
    5.55    5519.0
    5.64    5509.5
    5.74    5500.0
    5.97    5477.4
    6.20    5454.7
    6.28    5447.9
    6.38    5437.6
    6.40    5436.5
    6.41    5435.3
    6.43    5433.0
    6.48    5428.3
    6.53    5423.6
    6.59    5418.9
    6.64    5414.2
    6.69    5409.5
    6.79    5400.0
    6.94    5387.1
    7.08    5374.1
    7.23    5361.1
    7.38    5348.1
    7.52    5336.1
    7.66    5324.1
    7.94    5300.0
    8.31    5270.3
    8.68    5240.3
    8.94    5220.2
    9.21    5200.0
    9.52    5176.9
    9.93    5146.9
   10.36    5116.6
   10.38    5115.0
   10.40    5113.5
   10.45    5110.3
   10.54    5104.1
   10.60    5100.0
   10.73    5091.5
   11.11    5066.1
   11.69    5028.8
   12.15    5000.0
   12.30    4991.1
   12.98    4950.6
   13.34    4930.1
   13.71    4909.6
   13.89    4900.0
   14.41    4872.3
   14.78    4853.4
   15.16    4834.5
   15.88    4800.0
   16.00    4794.4
   16.44    4774.0
   16.90    4753.5
   17.78    4716.4
   18.19    4700.0
   18.74    4678.8
   19.26    4659.8
   19.78    4640.8
   20.33    4621.6
   20.92    4602.4
   20.99    4600.0
   21.59    4581.8
   22.19    4563.5
   22.89    4544.0
   23.63    4524.3
   24.63    4500.0
   25.31    4484.7
   25.99    4471.4
   26.68    4458.0
   27.36    4444.7
   27.66    4439.7
   28.61    4426.5
   29.57    4413.2
   30.53    4400.0
   31.34    4393.0
   32.15    4386.0
   32.97    4378.9
   33.72    4375.2
   34.47    4371.6
   35.41    4369.9
   36.35    4368.3
   37.28    4369.9
   38.22    4371.6
   38.97    4375.2
   39.72    4378.9
   40.54    4386.0
   41.35    4393.0
   42.17    4400.0
   43.12    4413.2
   44.08    4426.5
   45.04    4439.7
   45.33    4444.7
   46.01    4458.0
   46.70    4471.4
   47.38    4484.7
   48.06    4500.0
   49.06    4524.3
   49.81    4544.0
   50.50    4563.5
   51.10    4581.8
   51.70    4600.0
   51.78    4602.4
   52.36    4621.6
   52.92    4640.8
   53.44    4659.8
   53.96    4678.8
   54.50    4700.0
   54.91    4716.4
   55.79    4753.5
   56.25    4774.0
   56.70    4794.4
   56.82    4800.0
   57.53    4834.5
   57.91    4853.4
   58.28    4872.3
   58.80    4900.0
   58.98    4909.6
   59.35    4930.1
   59.71    4950.6
   60.40    4991.1
   60.54    5000.0
   61.01    5028.8
   61.59    5066.1
   61.97    5091.5
   62.09    5100.0
   62.15    5104.1
   62.24    5110.3
   62.29    5113.5
   62.31    5115.0
   62.33    5116.6
   62.76    5146.9
   63.18    5176.9
   63.49    5200.0
   63.75    5220.2
   64.01    5240.3
   64.39    5270.3
   64.75    5300.0
   65.04    5324.1
   65.18    5336.1
   65.31    5348.1
   65.46    5361.1
   65.61    5374.1
   65.76    5387.1
   65.90    5400.0
   66.00    5409.5
   66.06    5414.2
   66.11    5418.9
   66.16    5423.6
   66.21    5428.3
   66.26    5433.0
   66.28    5435.3
   66.30    5436.5
   66.31    5437.6
   66.42    5447.9
   66.49    5454.7
   66.73    5477.4
   66.96    5500.0
   67.05    5509.5
   67.15    5519.0
   67.33    5537.9
   67.39    5544.0
   67.45    5550.0
   67.57    5562.1
   67.75    5581.1
   67.93    5600.0
   68.14    5623.1
   68.38    5650.0
   68.58    5672.2
   68.67    5683.3
   68.76    5694.2
   68.79    5697.6
   68.82    5701.0
   68.96    5718.5
   69.09    5736.0
   69.13    5740.7
   69.16    5745.3
   69.26    5758.2
   69.31    5764.6
   69.35    5771.0
   69.48    5787.7
   69.60    5804.2
   69.65    5812.3
   69.71    5820.4
   69.72    5821.0
   69.81    5834.8
   69.90    5848.3
   69.95    5855.1
   69.99    5861.7
   70.06    5871.0
   70.19    5891.1
   70.28    5906.2
   70.38    5921.0
   70.41    5926.9
   70.45    5932.7
   70.47    5935.6
   70.57    5953.5
   70.63    5962.3
   70.68    5971.0
   70.75    5984.5
   70.85    6001.4
   70.93    6016.0
   71.05    6037.7
   71.16    6059.2
   71.17    6060.1
   71.17    6061.0
   71.27    6080.5
   71.34    6093.3
   71.41    6106.0
   71.44    6111.6
   71.46    6117.1
   71.52    6128.2
   71.53    6130.6
   71.55    6133.1
   71.59    6142.1
   71.61    6146.5
   71.63    6148.8
   71.64    6151.0
   71.72    6168.5
   71.80    6186.0
   71.88    6203.5
   71.96    6221.0
   72.03    6238.5
   72.07    6247.2
   72.11    6256.0
   72.15    6263.3
   72.15    6264.0
   72.21    6277.5
   72.27    6291.0
   72.31    6301.0
   72.36    6311.0
   72.38    6316.0
   72.40    6321.0
   72.42    6326.0
   72.44    6331.0
   72.46    6334.9
   72.48    6338.8
   72.49    6341.0
   72.50    6342.7
   72.50    6344.6
   72.51    6346.6
   72.51    6346.9
   72.53    6351.4
   72.54    6353.7
   72.54    6354.9
   72.55    6356.0
   72.57    6363.5
   72.58    6367.3
   72.58    6369.1
   72.59    6370.1
   72.59    6371.0
> S at  1247.07 seconds at    72.59 degrees for a     30.0 km deep source in the prem model with rayParam   11.374 s/deg.
    0.00    6341.0
    0.01    6338.8
    0.03    6334.9
    0.05    6331.0
    0.06    6327.3
    0.08    6323.2
    0.10    6319.2
    0.14    6311.0
    0.19    6301.0
    0.24    6291.0
    0.28    6282.2
    0.32    6273.5
    0.36    6264.7
    0.40    6256.0
    0.45    6246.0
    0.50    6236.0
    0.57    6221.0
    0.66    6203.5
    0.74    6186.0
    0.83    6168.5
    0.91    6151.0
    0.93    6148.2
    0.94    6145.3
    0.97    6139.7
    1.00    6134.0
    1.04    6128.3
    1.09    6117.2
    1.12    6111.6
    1.15    6106.0
    1.22    6094.7
    1.25    6089.0
    1.28    6083.3
    1.34    6072.2
    1.40    6061.0
    1.47    6048.8
    1.53    6038.3
    1.61    6023.1
    1.65    6016.0
    1.71    6006.6
    1.76    5997.1
    1.84    5984.1
    1.91    5971.0
    1.96    5963.9
    2.00    5956.7
    2.08    5945.0
    2.15    5933.1
    2.19    5927.1
    2.23    5921.0
    2.33    5906.3
    2.43    5891.4
    2.50    5881.3
    2.57    5871.0
    2.67    5856.8
    2.75    5845.0
    2.76    5843.8
    2.79    5839.5
    2.79    5839.3
    2.79    5839.1
    2.80    5838.7
    2.80    5837.9
    2.81    5836.2
    2.82    5835.8
    2.82    5835.4
    2.82    5834.7
    2.84    5833.1
    2.93    5821.0
    2.99    5812.3
    3.10    5798.2
    3.14    5792.5
    3.21    5783.9
    3.24    5779.5
    3.25    5778.7
    3.31    5771.0
    3.34    5767.2
    3.39    5760.6
    3.45    5753.4
    3.59    5736.0
    3.60    5734.3
    3.62    5732.6
    3.63    5730.9
    3.75    5716.0
    3.87    5701.0
    3.92    5696.3
    3.96    5691.6
    4.05    5682.1
    4.21    5666.2
    4.24    5662.4
    4.25    5662.1
    4.25    5661.9
    4.26    5661.3
    4.27    5660.2
    4.27    5660.1
    4.27    5659.5
    4.28    5658.9
    4.29    5657.6
    4.32    5655.1
    4.37    5650.0
    4.58    5629.3
    4.73    5614.7
    4.89    5600.0
    4.94    5595.6
    4.98    5591.1
    5.08    5582.2
    5.28    5564.3
    5.46    5548.3
    5.55    5540.3
    5.64    5532.3
    5.83    5516.2
    5.92    5508.1
    6.01    5500.0
    6.22    5482.3
    6.33    5473.4
    6.44    5464.5
    6.63    5448.4
    6.73    5440.4
    6.83    5432.4
    7.03    5416.2
    7.14    5408.1
    7.24    5400.0
    7.47    5382.3
    7.70    5364.6
    8.13    5332.4
    8.15    5330.7
    8.58    5300.0
    9.03    5268.6
    9.49    5237.0
   10.05    5200.0
   10.35    5181.1
   10.65    5162.2
   11.28    5124.1
   11.29    5123.5
   11.30    5123.0
   11.31    5122.5
   11.32    5121.8
   11.34    5120.7
   11.35    5119.5
   11.38    5118.1
   11.40    5116.6
   11.43    5115.2
   11.45    5113.7
   11.50    5110.8
   11.55    5107.9
   11.62    5103.9
   11.69    5100.0
   11.69    5099.8
   11.73    5097.6
   11.77    5095.0
   11.82    5092.5
   11.91    5087.3
   12.00    5082.2
   12.09    5077.0
   12.18    5071.9
   12.28    5066.7
   12.29    5066.1
   12.30    5065.6
   12.32    5064.5
   12.34    5063.4
   12.36    5062.2
   12.40    5060.0
   12.44    5057.8
   12.52    5053.3
   12.60    5048.8
   12.77    5039.8
   12.94    5030.8
   13.23    5015.4
   13.38    5007.7
   13.53    5000.0
   13.84    4984.4
   14.15    4968.7
   14.81    4937.2
   15.21    4918.6
   15.62    4900.0
   16.50    4862.2
   17.44    4824.2
   17.51    4821.2
   17.59    4818.2
   17.75    4812.1
   18.07    4800.0
   18.16    4796.6
   18.25    4793.3
   18.67    4778.2
   18.88    4770.7
   19.09    4763.1
   19.60    4745.9
   20.13    4728.6
   20.97    4702.4
   21.01    4701.2
   21.05    4700.0
   21.55    4685.5
   22.06    4671.0
   22.61    4656.5
   23.16    4642.0
   23.97    4622.6
   24.47    4611.3
   24.98    4600.0
   25.87    4582.0
   26.00    4579.5
   26.13    4576.9
   26.41    4571.8
   26.99    4561.6
   27.63    4551.4
   28.28    4541.2
   28.40    4539.5
   28.51    4537.8
   29.26    4528.3
   30.00    4518.9
   31.00    4509.5
   32.00    4500.0
   32.37    4497.3
   32.79    4494.6
   33.65    4491.9
   34.51    4489.2
   35.38    4486.6
   36.24    4483.9
   37.10    4486.6
   37.97    4489.2
   38.83    4491.9
   39.69    4494.6
   40.11    4497.3
   40.48    4500.0
   41.48    4509.5
   42.48    4518.9
   43.22    4528.3
   43.97    4537.8
   44.09    4539.5
   44.20    4541.2
   44.85    4551.4
   45.50    4561.6
   46.07    4571.8
   46.35    4576.9
   46.48    4579.5
   46.61    4582.0
   47.50    4600.0
   48.01    4611.3
   48.52    4622.6
   49.32    4642.0
   49.87    4656.5
   50.42    4671.0
   50.93    4685.5
   51.43    4700.0
   51.47    4701.2
   51.51    4702.4
   52.35    4728.6
   52.88    4745.9
   53.39    4763.1
   53.60    4770.7
   53.81    4778.2
   54.23    4793.3
   54.32    4796.6
   54.41    4800.0
   54.73    4812.1
   54.89    4818.2
   54.97    4821.2
   55.04    4824.2
   55.98    4862.2
   56.86    4900.0
   57.27    4918.6
   57.67    4937.2
   58.33    4968.7
   58.65    4984.4
   58.95    5000.0
   59.10    5007.7
   59.25    5015.4
   59.54    5030.8
   59.71    5039.8
   59.88    5048.8
   59.96    5053.3
   60.04    5057.8
   60.08    5060.0
   60.12    5062.2
   60.14    5063.4
   60.16    5064.5
   60.18    5065.6
   60.19    5066.1
   60.20    5066.7
   60.30    5071.9
   60.39    5077.0
   60.48    5082.2
   60.57    5087.3
   60.66    5092.5
   60.71    5095.0
   60.75    5097.6
   60.79    5099.8
   60.79    5100.0
   60.86    5103.9
   60.93    5107.9
   60.98    5110.8
   61.03    5113.7
   61.05    5115.2
   61.08    5116.6
   61.10    5118.1
   61.13    5119.5
   61.15    5120.7
   61.16    5121.8
   61.18    5122.5
   61.18    5123.0
   61.19    5123.5
   61.20    5124.1
   61.83    5162.2
   62.13    5181.1
   62.43    5200.0
   62.99    5237.0
   63.46    5268.6
   63.90    5300.0
   64.33    5330.7
   64.35    5332.4
   64.78    5364.6
   65.01    5382.3
   65.24    5400.0
   65.35    5408.1
   65.45    5416.2
   65.65    5432.4
   65.75    5440.4
   65.85    5448.4
   66.04    5464.5
   66.15    5473.4
   66.26    5482.3
   66.47    5500.0
   66.56    5508.1
   66.66    5516.2
   66.84    5532.3
   66.93    5540.3
   67.02    5548.3
   67.20    5564.3
   67.40    5582.2
   67.50    5591.1
   67.54    5595.6
   67.59    5600.0
   67.75    5614.7
   67.90    5629.3
   68.11    5650.0
   68.16    5655.1
   68.19    5657.6
   68.20    5658.9
   68.21    5659.5
   68.21    5660.1
   68.21    5660.2
   68.23    5661.3
   68.23    5661.9
   68.23    5662.1
   68.24    5662.4
   68.27    5666.2
   68.43    5682.1
   68.52    5691.6
   68.56    5696.3
   68.61    5701.0
   68.73    5716.0
   68.85    5730.9
   68.86    5732.6
   68.88    5734.3
   68.89    5736.0
   69.03    5753.4
   69.09    5760.6
   69.14    5767.2
   69.17    5771.0
   69.23    5778.7
   69.24    5779.5
   69.27    5783.9
   69.34    5792.5
   69.38    5798.2
   69.49    5812.3
   69.56    5821.0
   69.64    5833.1
   69.66    5834.7
   69.66    5835.4
   69.66    5835.8
   69.67    5836.2
   69.68    5837.9
   69.68    5838.7
   69.69    5839.1
   69.69    5839.3
   69.69    5839.5
   69.72    5843.8
   69.73    5845.0
   69.81    5856.8
   69.91    5871.0
   69.98    5881.3
   70.05    5891.4
   70.15    5906.3
   70.25    5921.0
   70.29    5927.1
   70.33    5933.1
   70.40    5945.0
   70.48    5956.7
   70.52    5963.9
   70.57    5971.0
   70.64    5984.1
   70.72    5997.1
   70.77    6006.6
   70.83    6016.0
   70.87    6023.1
   70.95    6038.3
   71.01    6048.8
   71.08    6061.0
   71.14    6072.2
   71.20    6083.3
   71.23    6089.0
   71.26    6094.7
   71.33    6106.0
   71.36    6111.6
   71.39    6117.2
   71.45    6128.3
   71.48    6134.0
   71.51    6139.7
   71.54    6145.3
   71.55    6148.2
   71.57    6151.0
   71.65    6168.5
   71.74    6186.0
   71.82    6203.5
   71.91    6221.0
   71.98    6236.0
   72.03    6246.0
   72.08    6256.0
   72.12    6264.7
   72.16    6273.5
   72.20    6282.2
   72.24    6291.0
   72.29    6301.0
   72.34    6311.0
   72.38    6319.2
   72.40    6323.2
   72.42    6327.3
   72.43    6331.0
   72.45    6334.9
   72.47    6338.8
   72.48    6341.0
   72.49    6342.7
   72.50    6344.6
   72.51    6346.6
   72.53    6351.3
   72.53    6353.7
   72.54    6354.8
   72.54    6356.0
   72.57    6363.5
   72.58    6367.2
   72.58    6369.1
   72.59    6370.1
   72.59    6371.0
> ScS at  1288.95 seconds at    72.59 degrees for a     30.0 km deep source in the prem model with rayParam    7.962 s/deg.
    0.00    6341.0
    0.01    6338.8
    0.02    6334.9
    0.03    6331.0
    0.04    6327.3
    0.05    6323.2
    0.07    6319.2
    0.09    6311.0
    0.12    6301.0
    0.16    6291.0
    0.18    6282.2
    0.21    6273.5
    0.24    6264.7
    0.26    6256.0
    0.30    6246.0
    0.33    6236.0
    0.38    6221.0
    0.43    6203.5
    0.49    6186.0
    0.54    6168.5
    0.60    6151.0
    0.61    6148.2
    0.62    6145.3
    0.64    6139.7
    0.66    6134.0
    0.68    6128.3
    0.72    6117.2
    0.74    6111.6
    0.76    6106.0
    0.79    6094.7
    0.82    6089.0
    0.84    6083.3
    0.87    6072.2
    0.91    6061.0
    0.96    6048.8
    1.00    6038.3
    1.05    6023.1
    1.08    6016.0
    1.11    6006.6
    1.15    5997.1
    1.20    5984.1
    1.24    5971.0
    1.27    5963.9
    1.30    5956.7
    1.35    5945.0
    1.40    5933.1
    1.42    5927.1
    1.44    5921.0
    1.51    5906.3
    1.57    5891.4
    1.61    5881.3
    1.66    5871.0
    1.72    5856.8
    1.77    5845.0
    1.78    5843.8
    1.79    5839.5
    1.80    5839.3
    1.80    5839.1
    1.80    5838.7
    1.80    5837.9
    1.81    5836.2
    1.81    5835.8
    1.81    5835.4
    1.82    5834.7
    1.82    5833.1
    1.88    5821.0
    1.92    5812.3
    1.98    5798.2
    2.01    5792.5
    2.05    5783.9
    2.07    5779.5
    2.08    5778.7
    2.11    5771.0
    2.13    5767.2
    2.16    5760.6
    2.20    5753.4
    2.28    5736.0
    2.29    5734.3
    2.30    5732.6
    2.31    5730.9
    2.38    5716.0
    2.46    5701.0
    2.48    5696.3
    2.51    5691.6
    2.56    5682.1
    2.65    5666.2
    2.67    5662.4
    2.67    5662.1
    2.67    5661.9
    2.68    5661.3
    2.68    5660.2
    2.68    5660.1
    2.69    5659.5
    2.69    5658.9
    2.70    5657.6
    2.71    5655.1
    2.74    5650.0
    2.86    5629.3
    2.95    5614.7
    3.04    5600.0
    3.06    5595.6
    3.09    5591.1
    3.14    5582.2
    3.25    5564.3
    3.35    5548.3
    3.40    5540.3
    3.45    5532.3
    3.55    5516.2
    3.61    5508.1
    3.66    5500.0
    3.77    5482.3
    3.83    5473.4
    3.89    5464.5
    3.99    5448.4
    4.05    5440.4
    4.10    5432.4
    4.21    5416.2
    4.26    5408.1
    4.32    5400.0
    4.44    5382.3
    4.56    5364.6
    4.78    5332.4
    4.80    5330.7
    5.02    5300.0
    5.24    5268.6
    5.48    5237.0
    5.76    5200.0
    5.90    5181.1
    6.05    5162.2
    6.35    5124.1
    6.36    5123.5
    6.36    5123.0
    6.37    5122.5
    6.37    5121.8
    6.38    5120.7
    6.39    5119.5
    6.40    5118.1
    6.41    5116.6
    6.42    5115.2
    6.44    5113.7
    6.46    5110.8
    6.48    5107.9
    6.52    5103.9
    6.55    5100.0
    6.55    5099.8
    6.57    5097.6
    6.59    5095.0
    6.61    5092.5
    6.65    5087.3
    6.69    5082.2
    6.74    5077.0
    6.78    5071.9
    6.82    5066.7
    6.83    5066.1
    6.83    5065.6
    6.84    5064.5
    6.85    5063.4
    6.86    5062.2
    6.88    5060.0
    6.90    5057.8
    6.93    5053.3
    6.97    5048.8
    7.05    5039.8
    7.12    5030.8
    7.26    5015.4
    7.32    5007.7
    7.39    5000.0
    7.53    4984.4
    7.66    4968.7
    7.95    4937.2
    8.11    4918.6
    8.29    4900.0
    8.64    4862.2
    9.01    4824.2
    9.04    4821.2
    9.07    4818.2
    9.13    4812.1
    9.25    4800.0
    9.28    4796.6
    9.31    4793.3
    9.46    4778.2
    9.54    4770.7
    9.62    4763.1
    9.79    4745.9
    9.97    4728.6
   10.25    4702.4
   10.26    4701.2
   10.27    4700.0
   10.58    4671.0
   10.90    4642.0
   11.12    4622.6
   11.38    4600.0
   11.58    4582.0
   11.61    4579.5
   11.64    4576.9
   11.70    4571.8
   11.82    4561.6
   12.07    4541.2
   12.09    4539.5
   12.11    4537.8
   12.33    4518.9
   12.57    4500.0
   12.60    4497.3
   12.63    4494.6
   12.91    4472.8
   13.19    4450.9
   13.76    4407.0
   13.85    4400.0
   14.05    4385.8
   14.24    4371.5
   14.74    4335.8
   15.25    4300.0
   15.96    4252.5
   16.30    4230.9
   16.54    4215.5
   16.78    4200.0
   17.29    4168.9
   17.81    4137.7
   17.84    4136.3
   18.15    4118.2
   18.47    4100.0
   19.13    4063.5
   19.82    4026.8
   19.95    4020.1
   20.08    4013.4
   20.34    4000.0
   20.44    3995.1
   20.53    3990.3
   20.90    3972.1
   21.27    3954.0
   21.32    3951.7
   21.37    3949.4
   21.47    3944.8
   21.70    3933.6
   21.95    3922.4
   22.19    3911.2
   22.44    3900.0
   22.95    3877.5
   23.48    3855.0
   24.03    3832.3
   24.59    3809.7
   24.71    3804.9
   24.84    3800.0
   25.24    3784.4
   25.66    3768.8
   26.53    3737.5
   27.08    3718.8
   27.64    3700.0
   28.64    3668.3
   29.27    3649.2
   29.94    3630.0
   30.47    3615.0
   30.75    3607.5
   31.03    3600.0
   31.92    3576.8
   32.39    3565.2
   32.87    3553.6
   33.44    3540.2
   34.02    3526.8
   34.64    3513.4
   35.26    3500.0
   35.65    3492.0
   36.26    3480.0
   36.86    3492.0
   37.25    3500.0
   37.87    3513.4
   38.50    3526.8
   39.07    3540.2
   39.65    3553.6
   40.13    3565.2
   40.59    3576.8
   41.49    3600.0
   41.77    3607.5
   42.04    3615.0
   42.58    3630.0
   43.24    3649.2
   43.88    3668.3
   44.88    3700.0
   45.43    3718.8
   45.99    3737.5
   46.86    3768.8
   47.27    3784.4
   47.68    3800.0
   47.80    3804.9
   47.93    3809.7
   48.48    3832.3
   49.04    3855.0
   49.57    3877.5
   50.08    3900.0
   50.33    3911.2
   50.57    3922.4
   50.81    3933.6
   51.05    3944.8
   51.15    3949.4
   51.19    3951.7
   51.24    3954.0
   51.62    3972.1
   51.98    3990.3
   52.08    3995.1
   52.18    4000.0
   52.44    4013.4
   52.57    4020.1
   52.70    4026.8
   53.39    4063.5
   54.05    4100.0
   54.37    4118.2
   54.68    4136.3
   54.70    4137.7
   55.23    4168.9
   55.73    4200.0
   55.98    4215.5
   56.22    4230.9
   56.55    4252.5
   57.26    4300.0
   57.78    4335.8
   58.28    4371.5
   58.47    4385.8
   58.66    4400.0
   58.76    4407.0
   59.33    4450.9
   59.61    4472.8
   59.88    4494.6
   59.92    4497.3
   59.95    4500.0
   60.18    4518.9
   60.41    4537.8
   60.43    4539.5
   60.45    4541.2
   60.69    4561.6
   60.81    4571.8
   60.87    4576.9
   60.90    4579.5
   60.93    4582.0
   61.14    4600.0
   61.40    4622.6
   61.61    4642.0
   61.93    4671.0
   62.24    4700.0
   62.26    4701.2
   62.27    4702.4
   62.55    4728.6
   62.72    4745.9
   62.90    4763.1
   62.98    4770.7
   63.05    4778.2
   63.20    4793.3
   63.24    4796.6
   63.27    4800.0
   63.39    4812.1
   63.45    4818.2
   63.48    4821.2
   63.51    4824.2
   63.88    4862.2
   64.23    4900.0
   64.40    4918.6
   64.57    4937.2
   64.85    4968.7
   64.99    4984.4
   65.13    5000.0
   65.19    5007.7
   65.26    5015.4
   65.39    5030.8
   65.47    5039.8
   65.55    5048.8
   65.58    5053.3
   65.62    5057.8
   65.64    5060.0
   65.66    5062.2
   65.67    5063.4
   65.68    5064.5
   65.69    5065.6
   65.69    5066.1
   65.69    5066.7
   65.74    5071.9
   65.78    5077.0
   65.82    5082.2
   65.86    5087.3
   65.91    5092.5
   65.93    5095.0
   65.95    5097.6
   65.97    5099.8
   65.97    5100.0
   66.00    5103.9
   66.03    5107.9
   66.06    5110.8
   66.08    5113.7
   66.09    5115.2
   66.10    5116.6
   66.12    5118.1
   66.13    5119.5
   66.14    5120.7
   66.15    5121.8
   66.15    5122.5
   66.15    5123.0
   66.16    5123.5
   66.16    5124.1
   66.47    5162.2
   66.61    5181.1
   66.76    5200.0
   67.04    5237.0
   67.27    5268.6
   67.50    5300.0
   67.72    5330.7
   67.73    5332.4
   67.96    5364.6
   68.08    5382.3
   68.20    5400.0
   68.26    5408.1
   68.31    5416.2
   68.42    5432.4
   68.47    5440.4
   68.52    5448.4
   68.63    5464.5
   68.69    5473.4
   68.75    5482.3
   68.86    5500.0
   68.91    5508.1
   68.96    5516.2
   69.06    5532.3
   69.11    5540.3
   69.16    5548.3
   69.26    5564.3
   69.37    5582.2
   69.43    5591.1
   69.45    5595.6
   69.48    5600.0
   69.57    5614.7
   69.66    5629.3
   69.78    5650.0
   69.80    5655.1
   69.82    5657.6
   69.83    5658.9
   69.83    5659.5
   69.83    5660.1
   69.83    5660.2
   69.84    5661.3
   69.84    5661.9
   69.84    5662.1
   69.85    5662.4
   69.87    5666.2
   69.96    5682.1
   70.01    5691.6
   70.03    5696.3
   70.06    5701.0
   70.13    5716.0
   70.21    5730.9
   70.22    5732.6
   70.23    5734.3
   70.23    5736.0
   70.32    5753.4
   70.35    5760.6
   70.39    5767.2
   70.40    5771.0
   70.44    5778.7
   70.44    5779.5
   70.47    5783.9
   70.51    5792.5
   70.53    5798.2
   70.60    5812.3
   70.64    5821.0
   70.69    5833.1
   70.70    5834.7
   70.70    5835.4
   70.71    5835.8
   70.71    5836.2
   70.71    5837.9
   70.72    5838.7
   70.72    5839.1
   70.72    5839.3
   70.72    5839.5
   70.74    5843.8
   70.75    5845.0
   70.80    5856.8
   70.86    5871.0
   70.90    5881.3
   70.95    5891.4
   71.01    5906.3
   71.07    5921.0
   71.10    5927.1
   71.12    5933.1
   71.17    5945.0
   71.22    5956.7
   71.24    5963.9
   71.27    5971.0
   71.32    5984.1
   71.37    5997.1
   71.40    6006.6
   71.44    6016.0
   71.47    6023.1
   71.52    6038.3
   71.56    6048.8
   71.60    6061.0
   71.64    6072.2
   71.68    6083.3
   71.70    6089.0
   71.72    6094.7
   71.76    6106.0
   71.78    6111.6
   71.80    6117.2
   71.84    6128.3
   71.86    6134.0
   71.88    6139.7
   71.90    6145.3
   71.91    6148.2
   71.92    6151.0
   71.97    6168.5
   72.03    6186.0
   72.09    6203.5
   72.14    6221.0
   72.19    6236.0
   72.22    6246.0
   72.25    6256.0
   72.28    6264.7
   72.31    6273.5
   72.33    6282.2
   72.36    6291.0
   72.39    6301.0
   72.42    6311.0
   72.45    6319.2
   72.46    6323.2
   72.47    6327.3
   72.49    6331.0
   72.50    6334.9
   72.51    6338.8
   72.52    6341.0
   72.52    6342.7
   72.53    6344.6
   72.53    6346.6
   72.55    6351.3
   72.55    6353.7
   72.56    6354.8
   72.56    6356.0
   72.57    6363.5
   72.58    6367.2
   72.59    6369.1
   72.59    6370.1
   72.59    6371.0
END
gmt psxy -P -R -O -JP -m -A >> ans1.ps <<END
END
